LabVIEW Measurement	
Writer_Version	2
Reader_Version	2
Separator	Tab
Decimal_Separator	.
Multi_Headings	No
X_Columns	One
Time_Pref	Absolute
Operator	Mark
Date	2019/07/23
Time	10:58:41.4189996719360351563
***End_of_Header***	
	
Channels	4				
Samples	1	1	1	1	
Date	2019/07/23	2019/07/23	2019/07/23	2019/07/23	
Time	10:58:41.4609999656677246094	10:58:41.4189996719360351563	10:58:41.4779996871948242188	10:58:41.4229998588562011719	
X_Dimension	Time	Time	Time	Time	
X0	0.0000000000000000E+0	0.0000000000000000E+0	0.0000000000000000E+0	0.0000000000000000E+0	
Delta_X	1.000000	1.000000	1.000000	1.000000	
***End_of_Header***					
X_Value	FieldPoint\FP @ COM1\cFP-AI-110 @1\Channel 0 (Scaled)	FieldPoint\FP @ COM1\cFP-AI-110 @1\Channel 1 (Scaled)	FieldPoint\FP @ COM1\cFP-AI-110 @1\Channel 2 (Scaled)	FieldPoint\FP @ COM1\cFP-AI-110 @1\Channel 3 (Scaled)	Comment
0.000000	0.159011	0.189480	19.830379	19.748812
2.937000	0.159011	0.189163	19.830379	19.748493
5.937000	0.159011	0.189480	19.830063	19.748493
8.937000	0.159011	0.189480	19.830379	19.748493
11.945000	0.159011	0.189480	19.830063	19.748493
14.950000	0.159011	0.189480	19.830379	19.748177
17.937000	0.158376	0.189480	19.830379	19.748177
21.042000	0.158376	0.189480	19.830379	19.748177
23.949999	0.158376	0.189480	19.830063	19.747860
26.937000	0.158376	0.189480	19.830379	19.747860
29.951000	0.158376	0.189480	19.830063	19.748177
32.938000	0.158376	0.189480	19.830063	19.747541
35.942000	0.158376	0.189480	19.830063	19.747860
38.942000	0.158376	0.189480	19.830063	19.747860
41.972000	0.158376	0.189480	19.830063	19.747541
44.943000	0.158376	0.189480	19.830063	19.746906
47.939000	0.158376	0.189480	19.829428	19.747541
50.939000	0.158376	0.189163	19.829428	19.746906
53.940000	0.158376	0.189163	19.829428	19.746906
56.948000	0.158376	0.189480	19.829428	19.746906
59.948000	0.158376	0.189480	19.829428	19.746590
62.940000	0.158376	0.189163	19.829428	19.746906
66.012001	0.158376	0.189480	19.829428	19.746590
68.941000	0.158376	0.189480	19.829111	19.746590
71.941000	0.158376	0.189480	19.829428	19.746590
74.963000	0.158376	0.189163	19.829111	19.746590
77.941000	0.158376	0.189163	19.829111	19.746590
81.016000	0.158376	0.189480	19.829111	19.746590
83.953000	0.158376	0.189163	19.829111	19.746590
86.941000	0.158376	0.189480	19.828793	19.746273
90.029000	0.158376	0.189480	19.829111	19.746273
92.950000	0.158376	0.189163	19.828793	19.746273
95.942000	0.158376	0.189480	19.828793	19.745955
98.942000	0.158376	0.189480	19.829111	19.745955
101.941000	0.158376	0.189163	19.828476	19.745955
104.942000	0.158376	0.189163	19.828793	19.745955
107.946000	0.158059	0.189163	19.828793	19.745955
110.967000	0.158376	0.189163	19.828476	19.745955
113.956000	0.158059	0.189163	19.828793	19.745955
116.959000	0.158376	0.189163	19.828793	19.745955
119.951000	0.158376	0.189163	19.828476	19.745638
122.943000	0.158059	0.189163	19.828476	19.745638
125.967000	0.158059	0.189163	19.828476	19.745955
129.015000	0.158059	0.189163	19.828476	19.745638
131.953000	0.158059	0.189163	19.828476	19.745638
134.953000	0.158059	0.189480	19.828476	19.745638
137.945000	0.158059	0.189163	19.828476	19.745638
140.949000	0.158059	0.189163	19.828157	19.745003
144.039000	0.158059	0.189163	19.828157	19.745003
146.946001	0.158059	0.189163	19.828157	19.745003
149.967000	0.158059	0.189163	19.827841	19.745003
152.948000	0.158059	0.189163	19.828157	19.745003
155.958000	0.158059	0.189163	19.828157	19.744686
158.951000	0.158059	0.189163	19.827841	19.744686
161.955000	0.158059	0.189163	19.827841	19.744686
164.959000	0.158059	0.189163	19.827841	19.744686
167.951000	0.158059	0.189163	19.827841	19.744368
170.959000	0.158059	0.189163	19.827206	19.744368
173.960001	0.158059	0.189163	19.827206	19.744368
176.960001	0.158059	0.189163	19.827206	19.744368
179.960000	0.158059	0.189163	19.827206	19.744368
182.960999	0.158059	0.189163	19.827206	19.744368
185.960000	0.158059	0.189163	19.827206	19.744051
188.960999	0.158059	0.189163	19.827206	19.744051
191.964000	0.158059	0.189163	19.826889	19.744051
194.977000	0.158059	0.189163	19.826889	19.744368
197.958000	0.157742	0.189163	19.826889	19.744368
200.954000	0.158059	0.189163	19.826889	19.744051
203.995000	0.157742	0.189163	19.826889	19.744051
206.954000	0.158059	0.189163	19.826889	19.744051
209.954000	0.157742	0.189163	19.826889	19.743732
212.955000	0.158059	0.189163	19.826889	19.744051
215.963000	0.158059	0.189163	19.826889	19.743732
218.964000	0.157742	0.189163	19.826889	19.744051
221.964000	0.157742	0.189163	19.826571	19.743732
224.968000	0.157742	0.189163	19.826571	19.743732
227.968000	0.157742	0.189163	19.826889	19.743732
230.956000	0.158059	0.189163	19.826571	19.742781
233.956000	0.157742	0.189163	19.826889	19.742781
236.964000	0.157742	0.188528	19.826571	19.742781
239.968000	0.157742	0.189163	19.826571	19.742781
242.973000	0.157742	0.189163	19.826571	19.742781
245.960000	0.158059	0.188528	19.826571	19.742781
248.972000	0.157742	0.189163	19.826571	19.742464
251.956000	0.157742	0.189163	19.826571	19.742781
254.955000	0.157742	0.189163	19.826571	19.742464
257.955000	0.157742	0.188528	19.826254	19.742464
260.965000	0.157742	0.189163	19.826254	19.742464
264.067000	0.157742	0.189163	19.826254	19.742464
267.060000	0.157742	0.189163	19.826254	19.742464
269.975000	0.157742	0.189163	19.826571	19.742146
273.056000	0.157742	0.188528	19.825937	19.741829
276.049000	0.157742	0.189163	19.826254	19.742146
278.964001	0.157742	0.188528	19.825937	19.742146
282.055000	0.157742	0.188528	19.826254	19.742146
284.968999	0.157742	0.188528	19.825937	19.742146
287.960999	0.157742	0.188528	19.825937	19.741829
291.055000	0.157742	0.188528	19.825937	19.742146
293.962000	0.157742	0.188528	19.825937	19.741829
297.041000	0.157742	0.189163	19.825937	19.742146
299.964000	0.157742	0.188528	19.825937	19.742146
302.973000	0.157424	0.188528	19.826254	19.741829
306.001000	0.157742	0.188528	19.825937	19.741829
309.077000	0.157742	0.188528	19.825937	19.741829
311.979000	0.157742	0.188528	19.825302	19.742146
314.968000	0.157742	0.188528	19.825302	19.741829
317.972000	0.157742	0.189163	19.825302	19.742146
320.979000	0.157742	0.188528	19.825937	19.741829
324.050000	0.157742	0.188528	19.825937	19.741829
327.046000	0.157424	0.188528	19.825302	19.741829
330.040000	0.157424	0.188528	19.825937	19.741829
333.052001	0.157742	0.188528	19.825302	19.741512
335.978000	0.157742	0.188528	19.825302	19.741512
339.032000	0.157742	0.188528	19.825302	19.741512
341.982000	0.157424	0.188528	19.825302	19.741512
345.080000	0.157424	0.188528	19.824984	19.741512
347.991000	0.157424	0.188528	19.825302	19.741512
350.981000	0.157424	0.188528	19.824984	19.740877
353.983000	0.157424	0.188528	19.824984	19.740877
356.970000	0.157424	0.188528	19.824984	19.740877
360.067000	0.157424	0.188528	19.824984	19.740877
363.049000	0.157424	0.188528	19.824984	19.740559
366.033000	0.157424	0.188528	19.824984	19.740559
368.983000	0.157424	0.188528	19.824984	19.740559
371.995000	0.157424	0.188528	19.824984	19.740559
375.059000	0.157424	0.188528	19.824984	19.740877
378.002000	0.157424	0.188528	19.824667	19.740559
381.006000	0.157424	0.188528	19.824984	19.740559
384.044000	0.157424	0.188528	19.824667	19.740559
387.069000	0.157424	0.188528	19.824667	19.740559
389.984000	0.157424	0.188528	19.824667	19.740559
392.984000	0.157424	0.188528	19.824350	19.740559
396.083000	0.157424	0.188528	19.824667	19.740559
398.989000	0.157424	0.188528	19.824667	19.740559
401.978000	0.157424	0.188528	19.824667	19.740242
405.011000	0.157424	0.188528	19.824350	19.740242
408.053000	0.157424	0.188528	19.824350	19.740242
411.000000	0.157424	0.188528	19.824350	19.740242
414.049000	0.157424	0.188528	19.824667	19.740242
416.985000	0.157424	0.188528	19.824350	19.740242
420.060000	0.157424	0.188528	19.824350	19.739925
423.062000	0.157424	0.188528	19.824350	19.740242
425.982000	0.157107	0.188211	19.824350	19.739925
429.087000	0.157107	0.188528	19.824667	19.740242
432.028000	0.157107	0.188211	19.824350	19.740242
435.071001	0.157424	0.188528	19.824350	19.739925
437.986001	0.157107	0.188528	19.824032	19.739925
441.045000	0.157107	0.188528	19.824032	19.739925
443.994000	0.157424	0.188211	19.824032	19.739925
447.045000	0.157107	0.188528	19.824350	19.739925
449.985000	0.157107	0.188528	19.824032	19.739925
452.998000	0.157424	0.188211	19.824032	19.739925
455.994000	0.157107	0.188528	19.824032	19.739925
459.053000	0.157107	0.188528	19.824032	19.739607
461.999000	0.157424	0.188528	19.824032	19.739607
464.999000	0.157424	0.188211	19.824032	19.739607
467.994000	0.157107	0.188528	19.824032	19.739925
470.986000	0.157424	0.188528	19.824032	19.739925
473.994000	0.157107	0.188528	19.824032	19.739925
476.986000	0.157107	0.188528	19.823397	19.739607
479.998000	0.157107	0.188211	19.823397	19.739607
482.998000	0.157107	0.188211	19.823397	19.738972
485.994000	0.157107	0.188528	19.823397	19.739607
488.998000	0.157107	0.188528	19.823397	19.739607
492.086000	0.157107	0.188211	19.823397	19.739607
494.995000	0.157107	0.188528	19.823397	19.739607
497.999000	0.157107	0.188211	19.823397	19.739607
501.085000	0.157107	0.188211	19.823397	19.738972
504.096000	0.157107	0.188211	19.823397	19.738972
507.034000	0.157107	0.188528	19.823397	19.739607
509.989000	0.157107	0.188211	19.823397	19.738972
513.028000	0.157107	0.188211	19.823397	19.738972
515.989000	0.157107	0.188528	19.823397	19.738972
518.993000	0.157107	0.188528	19.823397	19.738972
521.989000	0.157107	0.188528	19.823397	19.738972
524.997000	0.157107	0.188211	19.824032	19.738972
528.002000	0.157107	0.188211	19.823397	19.738972
531.007000	0.157107	0.188528	19.823397	19.738972
533.998000	0.157107	0.188211	19.823397	19.738972
536.990000	0.157107	0.188211	19.823397	19.738972
539.990001	0.157107	0.188211	19.823080	19.738655
543.034999	0.157107	0.188211	19.823080	19.738655
545.999000	0.157107	0.188211	19.823397	19.738655
548.999000	0.157107	0.188211	19.823080	19.738655
551.999000	0.157107	0.188528	19.823080	19.738655
555.004000	0.157107	0.188211	19.823080	19.738655
558.001000	0.157107	0.188211	19.823080	19.738655
561.005001	0.157107	0.188211	19.822763	19.738338
563.993001	0.157107	0.188528	19.823080	19.738655
567.003000	0.156789	0.188211	19.823080	19.738655
569.994000	0.157107	0.188211	19.823080	19.738655
573.003000	0.157107	0.188211	19.822763	19.738338
576.002000	0.157107	0.188211	19.823080	19.738338
579.011000	0.157107	0.188211	19.822763	19.738020
582.027000	0.156789	0.188211	19.823080	19.738338
585.002000	0.156789	0.188211	19.823080	19.738338
588.002000	0.156789	0.188528	19.823080	19.738338
591.085001	0.157107	0.188211	19.822763	19.738338
594.001999	0.156789	0.188211	19.822763	19.738338
597.015000	0.156789	0.188211	19.822763	19.738338
600.007000	0.156789	0.188528	19.822763	19.738020
603.002000	0.156789	0.188211	19.822763	19.738020
606.007000	0.156789	0.188211	19.822445	19.738020
609.007000	0.156789	0.188211	19.822763	19.738338
611.994000	0.156789	0.188211	19.822445	19.738020
615.032000	0.156789	0.188211	19.822763	19.738020
617.994000	0.157107	0.188211	19.822763	19.738020
621.060999	0.156789	0.188211	19.822445	19.738020
624.001999	0.156789	0.188211	19.822445	19.738020
627.002000	0.156789	0.188211	19.822128	19.738020
629.994000	0.157107	0.188211	19.822445	19.738020
633.011000	0.156789	0.188211	19.822128	19.738020
636.002000	0.156789	0.188211	19.822128	19.737703
639.027000	0.156789	0.188211	19.822128	19.738020
642.002000	0.156789	0.188211	19.822128	19.737703
645.007000	0.157107	0.188211	19.822128	19.738020
648.008999	0.156789	0.188211	19.822128	19.737703
650.994000	0.156789	0.188211	19.822128	19.737703
654.006000	0.156789	0.188211	19.822128	19.737703
657.002000	0.156789	0.188211	19.822128	19.737703
659.995000	0.156789	0.188211	19.822128	19.737703
663.002000	0.156789	0.188211	19.822128	19.737703
666.012001	0.156789	0.188211	19.822128	19.737703
668.999000	0.156789	0.188211	19.822128	19.737385
672.044000	0.156789	0.187893	19.822128	19.737385
675.055000	0.156789	0.188211	19.822128	19.737703
678.083000	0.156789	0.188211	19.822128	19.736752
681.004000	0.156789	0.188211	19.821810	19.737385
683.996000	0.156789	0.188211	19.821810	19.737385
687.004000	0.156789	0.188211	19.821810	19.737385
690.016000	0.156789	0.188211	19.821810	19.737385
693.004000	0.156789	0.188211	19.821810	19.737385
696.004000	0.156789	0.188211	19.821810	19.737385
699.005000	0.156789	0.188211	19.821810	19.737385
702.064000	0.156789	0.188211	19.821810	19.737385
705.023000	0.156789	0.188211	19.821810	19.736752
708.011000	0.156789	0.188211	19.821810	19.736752
711.077000	0.156789	0.188211	19.821177	19.736752
713.998000	0.156789	0.188211	19.821810	19.736752
717.011000	0.156155	0.188211	19.821810	19.737385
720.012001	0.156789	0.188211	19.820858	19.736752
723.007000	0.156789	0.188211	19.821177	19.736752
726.008000	0.156789	0.188211	19.821177	19.736752
729.004000	0.156789	0.188211	19.821177	19.736752
732.024000	0.156789	0.188211	19.820858	19.736433
735.000000	0.156789	0.188211	19.821177	19.736752
738.009000	0.156155	0.188211	19.821177	19.736752
741.008000	0.156789	0.188211	19.821177	19.736752
744.004000	0.156155	0.187893	19.821177	19.736752
747.016001	0.156155	0.188211	19.820858	19.736752
750.016000	0.156789	0.188211	19.820858	19.736433
753.008000	0.156155	0.188211	19.821177	19.736433
756.014000	0.156155	0.188211	19.821177	19.736433
759.009000	0.156155	0.188211	19.821177	19.736752
762.023000	0.156155	0.188211	19.821177	19.736433
765.014000	0.156155	0.187893	19.820858	19.736433
768.011000	0.156155	0.188211	19.821177	19.736433
771.015000	0.156155	0.187893	19.820858	19.736433
774.002000	0.156155	0.188211	19.820541	19.736433
777.034999	0.156155	0.188211	19.820858	19.736433
780.006000	0.156155	0.187893	19.820858	19.736433
783.010000	0.156155	0.188211	19.820858	19.736433
786.019000	0.156155	0.188211	19.820858	19.736116
789.047000	0.156155	0.188211	19.820858	19.736433
792.010000	0.156155	0.187893	19.820541	19.736433
795.015000	0.156155	0.188211	19.820858	19.736433
798.002000	0.156155	0.188211	19.820858	19.736433
801.072000	0.156155	0.187893	19.820858	19.736433
804.018000	0.156155	0.188211	19.820858	19.736116
807.002000	0.156789	0.188211	19.820858	19.736116
810.010000	0.156155	0.188211	19.820541	19.736116
813.006000	0.156155	0.187893	19.820541	19.736116
816.032000	0.156155	0.187893	19.820858	19.736116
819.010000	0.156155	0.188211	19.820541	19.736116
822.012001	0.156155	0.187893	19.820858	19.736116
825.012001	0.156155	0.187893	19.820541	19.736116
828.029000	0.156155	0.187893	19.820541	19.736116
831.021000	0.156155	0.188211	19.820541	19.736116
834.012000	0.156155	0.188211	19.820541	19.736116
837.012000	0.156155	0.188211	19.820223	19.735798
840.017000	0.156155	0.187893	19.820223	19.735798
843.012000	0.156155	0.187893	19.820223	19.735798
846.101000	0.155837	0.187893	19.820223	19.735798
849.013000	0.156155	0.187893	19.820223	19.735798
852.006000	0.156155	0.188211	19.820541	19.735798
855.043000	0.156155	0.187893	19.820541	19.735798
858.043000	0.156155	0.187893	19.820223	19.736116
861.014000	0.156155	0.187893	19.820223	19.736116
864.010000	0.156155	0.188211	19.820223	19.735798
867.018000	0.156155	0.187893	19.820223	19.735798
870.006000	0.156155	0.187893	19.820223	19.735798
873.118001	0.155837	0.187893	19.820223	19.735798
876.073000	0.156155	0.187893	19.820223	19.735481
879.010000	0.155837	0.187893	19.820223	19.735798
882.018000	0.156155	0.188211	19.820223	19.735798
885.019000	0.156155	0.187893	19.820223	19.735798
888.022000	0.156155	0.187893	19.820541	19.735798
891.005000	0.156155	0.187893	19.820223	19.735798
894.094000	0.156155	0.187893	19.820541	19.735798
897.014000	0.156155	0.187893	19.820541	19.735481
900.006000	0.155837	0.187893	19.820223	19.735481
903.014000	0.155837	0.187893	19.820223	19.735798
906.024000	0.155837	0.187893	19.819906	19.735481
909.070000	0.155837	0.187893	19.819906	19.735481
912.085000	0.156155	0.187893	19.819906	19.735481
915.100000	0.155837	0.187893	19.819906	19.735481
918.023000	0.156155	0.187893	19.820223	19.735481
921.015000	0.155837	0.187893	19.820223	19.735481
924.016000	0.155837	0.187893	19.819906	19.735798
927.015000	0.155837	0.187893	19.819906	19.735798
930.015000	0.155837	0.187893	19.819906	19.735481
933.011000	0.156155	0.187893	19.819906	19.735481
936.015000	0.155837	0.187893	19.819271	19.735481
939.015000	0.155837	0.187893	19.820223	19.735481
942.092000	0.155837	0.187893	19.819906	19.734846
945.007000	0.155837	0.187893	19.819906	19.735481
948.036000	0.155837	0.187893	19.820223	19.735481
951.007000	0.156155	0.187893	19.819906	19.735798
954.016001	0.156155	0.187893	19.819906	19.735481
957.016001	0.155837	0.187893	19.819906	19.735481
960.024000	0.155837	0.187893	19.819906	19.735481
963.119999	0.155837	0.187893	19.819906	19.735481
966.021000	0.155837	0.187893	19.819906	19.735481
969.016000	0.155837	0.187893	19.819906	19.735481
972.037000	0.155837	0.187893	19.819906	19.734846
975.007000	0.155837	0.187893	19.819906	19.735481
978.016000	0.155837	0.187893	19.819906	19.735481
981.017000	0.155837	0.187576	19.819906	19.735481
984.100000	0.155837	0.187893	19.819906	19.734846
987.121000	0.155837	0.187893	19.819906	19.735481
990.017000	0.155837	0.187893	19.819271	19.734846
993.017000	0.155837	0.187893	19.819271	19.735481
996.043000	0.155837	0.187893	19.819271	19.734846
999.017000	0.155837	0.187893	19.819271	19.734846
1002.026000	0.155837	0.187893	19.819271	19.734846
1005.022000	0.155837	0.187893	19.819271	19.734846
1008.083000	0.155837	0.187893	19.819271	19.734846
1011.017000	0.155837	0.187893	19.819271	19.734846
1014.010000	0.155837	0.187893	19.819906	19.734846
1017.010000	0.155837	0.187893	19.819271	19.734846
1020.085000	0.155837	0.187893	19.818954	19.734529
1023.094000	0.155837	0.187576	19.819271	19.734529
1026.024000	0.155837	0.187893	19.819271	19.734846
1029.020000	0.155837	0.187893	19.819271	19.734846
1032.095000	0.155837	0.187893	19.818954	19.734529
1035.012001	0.155837	0.187893	19.819271	19.734846
1038.020000	0.155837	0.187893	19.819271	19.734529
1041.028000	0.155837	0.187893	19.819271	19.734846
1044.020000	0.155837	0.187893	19.819271	19.734846
1047.038000	0.155837	0.187893	19.819271	19.734529
1050.045000	0.155837	0.187576	19.819271	19.734529
1053.020000	0.155520	0.187576	19.819271	19.734529
1056.016000	0.155520	0.187893	19.819271	19.734529
1059.020000	0.155837	0.187893	19.819271	19.734529
1062.020999	0.155837	0.187576	19.818954	19.734529
1065.013000	0.155837	0.187576	19.819271	19.734529
1068.035000	0.155520	0.187893	19.818954	19.734529
1071.027000	0.155837	0.187893	19.818954	19.734529
1074.022000	0.155837	0.187893	19.819271	19.734529
1077.015000	0.155520	0.187893	19.819271	19.734529
1080.023000	0.155520	0.187893	19.818954	19.734529
1083.023000	0.155520	0.187893	19.818954	19.734529
1086.074000	0.155837	0.187576	19.818954	19.734529
1089.033000	0.155837	0.187893	19.818954	19.734529
1092.032000	0.155837	0.187893	19.818954	19.734211
1095.096000	0.155837	0.187893	19.818954	19.734211
1098.037000	0.155837	0.187576	19.818954	19.734529
1101.024000	0.155837	0.187576	19.818636	19.734529
1104.104001	0.155837	0.187893	19.818954	19.734211
1107.025000	0.155520	0.187893	19.818954	19.734211
1110.025000	0.155837	0.187893	19.818954	19.734211
1113.092000	0.155837	0.187893	19.818954	19.734211
1116.025000	0.155837	0.187576	19.818954	19.734211
1119.021000	0.155520	0.187893	19.818954	19.734211
1122.029000	0.155837	0.187893	19.818954	19.734211
1125.030000	0.155837	0.187576	19.818954	19.733894
1128.025000	0.155837	0.187893	19.818954	19.733894
1131.025000	0.155837	0.187893	19.818954	19.733894
1134.017000	0.155837	0.187576	19.818954	19.733894
1137.025000	0.155837	0.187576	19.818636	19.733894
1140.118000	0.155837	0.187893	19.818954	19.733894
1143.032000	0.155837	0.187893	19.818636	19.733894
